* Measurement data measured by REW V5.20.4
* Source: Trace Arithmetic result A * B
* Format: Trace Arithmetic result A * B
* Dated: Jul 28, 2022 9:40:58 PM
* REW Settings:
*  C-weighting compensation: Off
*  Target level: 75.0 dB
* Note: Trace Arithmetic A times B A = L 30 Ohms B = Aster Correction Averaged Fin
* Measurement: R 30 Ohms
* Smoothing: 1/48 octave
* Frequency Step: 96 ppo
* Start Frequency: 2.0187378 Hz
*
* Freq(Hz) SPL(dB)
2.018738 -128.287
2.033366 -128.287
2.048101 -128.287
2.062942 -128.287
2.077891 -128.287
2.092948 -128.287
2.108115 -128.287
2.123391 -128.287
2.138778 -128.287
2.154276 -128.287
2.169887 -128.287
2.185611 -128.287
2.201449 -128.287
2.217402 -128.287
2.233470 -128.287
2.249654 -128.287
2.265956 -128.287
2.282376 -128.287
2.298915 -128.287
2.315574 -128.287
2.332354 -128.287
2.349255 -128.287
2.366279 -128.287
2.383426 -128.287
2.400697 -128.287
2.418093 -128.287
2.435616 -128.287
2.453265 -128.287
2.471043 -128.287
2.488949 -128.287
2.506985 -128.287
2.525151 -128.287
2.543450 -128.287
2.561881 -128.287
2.580445 -128.287
2.599144 -128.287
2.617979 -128.287
2.636950 -128.287
2.656058 -128.287
2.675305 -128.287
2.694691 -128.287
2.714218 -128.287
2.733886 -128.287
2.753697 -128.287
2.773652 -128.287
2.793751 -128.287
2.813995 -128.287
2.834387 -128.287
2.854926 -128.287
2.875614 -128.287
2.896452 -128.287
2.917441 -128.287
2.938582 -128.287
2.959876 -128.287
2.981324 -128.287
3.002928 -128.287
3.024688 -128.287
3.046607 -128.287
3.068684 -128.287
3.090921 -128.287
3.113319 -128.287
3.135879 -128.287
3.158603 -128.287
3.181491 -128.287
3.204546 -128.287
3.227767 -128.287
3.251157 -128.287
3.274716 -128.287
3.298446 -128.287
3.322348 -128.287
3.346423 -128.287
3.370673 -128.287
3.395098 -128.287
3.419700 -128.287
3.444481 -128.287
3.469441 -128.287
3.494582 -128.287
3.519905 -128.287
3.545412 -128.287
3.571103 -128.287
3.596981 -128.287
3.623046 -128.287
3.649300 -128.287
3.675745 -128.287
3.702381 -128.287
3.729210 -128.287
3.756233 -128.287
3.783452 -128.287
3.810869 -128.287
3.838484 -128.287
3.866299 -128.287
3.894316 -128.287
3.922536 -128.287
3.950960 -128.287
3.979590 -128.287
4.008428 -128.287
4.037475 -128.287
4.066732 -128.287
4.096201 -128.287
4.125884 -128.287
4.155781 -128.287
4.185896 -128.287
4.216228 -128.287
4.246781 -128.287
4.277555 -128.287
4.308552 -128.287
4.339773 -128.287
4.371221 -128.287
4.402897 -128.287
4.434802 -128.287
4.466938 -128.287
4.499308 -128.287
4.531911 -128.287
4.564752 -128.287
4.597830 -128.287
4.631147 -128.287
4.664707 -128.287
4.698509 -128.287
4.732556 -128.287
4.766850 -128.287
4.801393 -128.287
4.836186 -128.287
4.871231 -128.287
4.906530 -128.287
4.942085 -128.287
4.977897 -128.287
5.013969 -128.287
5.050302 -128.287
5.086899 -128.287
5.123761 -128.287
5.160890 -128.287
5.198287 -128.287
5.235956 -128.287
5.273898 -128.287
5.312115 -128.287
5.350609 -128.287
5.389381 -128.287
5.428435 -128.287
5.467772 -128.287
5.507394 -128.287
5.547303 -128.287
5.587501 -128.287
5.627990 -128.287
5.668773 -128.287
5.709851 -128.287
5.751227 -128.287
5.792902 -128.287
5.834880 -128.287
5.877162 -128.287
5.919751 -128.287
5.962647 -128.287
6.005855 -128.287
6.049376 -128.287
6.093212 -128.287
6.137366 -128.287
6.181839 -128.287
6.226635 -128.287
6.271756 -128.287
6.317204 -128.287
6.362981 -128.287
6.409090 -128.287
6.455533 -128.287
6.502312 -128.287
6.549431 -128.287
6.596891 -128.287
6.644695 -128.287
6.692845 -128.287
6.741344 -128.287
6.790195 -128.287
6.839399 -128.287
6.888960 -128.287
6.938880 -128.287
6.989162 -128.287
7.039808 -128.287
7.090822 -128.287
7.142205 -128.287
7.193960 -128.287
7.246090 -128.287
7.298599 -128.287
7.351488 -128.287
7.404759 -128.287
7.458417 -128.287
7.512464 -128.287
7.566903 -128.287
7.621736 -128.287
7.676966 -128.287
7.732596 -128.287
7.788630 -128.287
7.845069 -128.287
7.901918 -128.287
7.959178 -128.287
8.016854 -128.287
8.074947 -128.287
8.133462 -128.287
8.192400 -128.287
8.251765 -128.287
8.311561 -128.287
8.371790 -128.287
8.432455 -128.287
8.493560 -128.287
8.555108 -128.287
8.617102 -128.287
8.679544 -128.287
8.742440 -128.287
8.805792 -128.287
8.869602 -128.287
8.933875 -128.287
8.998613 -128.287
9.063821 -128.287
9.129501 -128.287
9.195658 -128.287
9.262293 -128.287
9.329412 -128.287
9.397017 -128.287
9.465111 -128.287
9.533699 -128.287
9.602784 -128.287
9.672370 -128.287
9.742460 -128.287
9.813058 -128.287
9.884168 -128.287
9.955792 -128.287
10.027936 -128.287
10.100602 -128.287
10.173796 -128.287
10.247519 -128.287
10.321777 -128.287
10.396573 -128.287
10.471910 -128.287
10.547794 -128.287
10.624228 -128.287
10.701216 -128.287
10.778761 -128.287
10.856868 -128.287
10.935541 -128.287
11.014785 -128.287
11.094603 -128.287
11.174998 -128.287
11.255977 -128.287
11.337543 -128.287
11.419699 -128.287
11.502451 -128.287
11.585802 -128.287
11.669758 -128.287
11.754322 -128.287
11.839499 -128.287
11.925292 -128.287
12.011707 -128.287
12.098749 -128.287
12.186421 -128.287
12.274729 -128.287
12.363676 -128.287
12.453268 -128.287
12.543509 -128.287
12.634405 -128.287
12.725959 -128.287
12.818176 -128.287
12.911062 -128.287
13.004622 -128.287
13.098858 -128.287
13.193778 -128.287
13.289386 -128.287
13.385686 -128.287
13.482684 -128.287
13.580385 -128.287
13.678794 -128.287
13.777916 -128.287
13.877756 -128.287
13.978320 -128.287
14.079613 -128.287
14.181640 -128.287
14.284406 -128.287
14.387917 -128.287
14.492177 -128.287
14.597194 -128.286
14.702971 -128.284
14.809515 -128.272
14.916831 -128.181
15.024924 -128.069
15.133801 -127.040
15.243467 -124.772
15.353928 -119.813
15.465188 -112.865
15.577255 -105.823
15.690134 -98.491
15.803831 -91.138
15.918352 -83.821
16.033703 -76.491
16.149889 -69.155
16.266918 -61.812
16.384794 -54.463
16.503525 -47.108
16.623116 -39.752
16.743574 -32.393
16.864904 -25.036
16.987114 -17.681
17.110210 -10.332
17.234198 -2.990
17.359083 4.340
17.484875 11.657
17.611578 18.956
17.739199 26.232
17.867744 33.481
17.997221 40.698
18.127636 47.875
18.258997 55.006
18.391310 62.082
18.524580 69.090
18.658817 76.021
18.794027 82.855
18.930216 89.582
19.067392 96.162
19.205563 102.587
19.344734 108.788
19.484915 114.740
19.626110 120.341
19.768330 125.454
19.911579 130.080
20.055866 133.008
20.201199 133.296
20.347586 133.360
20.495033 133.380
20.643549 133.407
20.793140 133.420
20.943815 133.433
21.095583 133.446
21.248449 133.456
21.402424 133.466
21.557514 133.473
21.713728 133.477
21.871075 133.478
22.029562 133.477
22.189198 133.475
22.349989 133.471
22.511946 133.466
22.675077 133.460
22.839390 133.454
23.004894 133.447
23.171597 133.441
23.339508 133.436
23.508636 133.431
23.678989 133.426
23.850576 133.420
24.023407 133.414
24.197491 133.407
24.372835 133.400
24.549450 133.393
24.727345 133.385
24.906528 133.378
25.087011 133.371
25.268803 133.364
25.451910 133.357
25.636345 133.350
25.822117 133.343
26.009235 133.336
26.197708 133.330
26.387548 133.324
26.578764 133.318
26.771364 133.312
26.965361 133.307
27.160763 133.301
27.357580 133.295
27.555824 133.289
27.755505 133.283
27.956633 133.276
28.159218 133.270
28.363272 133.265
28.568804 133.260
28.775826 133.255
28.984346 133.250
29.194380 133.243
29.405933 133.236
29.619020 133.229
29.833652 133.220
30.049839 133.211
30.267593 133.202
30.486925 133.191
30.707846 133.181
30.930367 133.171
31.154501 133.160
31.380259 133.151
31.607653 133.141
31.836695 133.131
32.067398 133.119
32.299770 133.107
32.533829 133.093
32.769581 133.079
33.007042 133.064
33.246223 133.049
33.487141 133.034
33.729801 133.018
33.974220 133.003
34.220413 132.986
34.468388 132.968
34.718159 132.949
34.969742 132.930
35.223148 132.911
35.478390 132.891
35.735481 132.871
35.994434 132.852
36.255264 132.833
36.517986 132.813
36.782612 132.792
37.049152 132.771
37.317627 132.750
37.588047 132.728
37.860424 132.707
38.134777 132.685
38.411118 132.663
38.689461 132.641
38.969822 132.618
39.252213 132.596
39.536652 132.573
39.823151 132.550
40.111725 132.527
40.402390 132.504
40.695164 132.480
40.990059 132.456
41.287090 132.431
41.586273 132.406
41.887623 132.380
42.191158 132.354
42.496891 132.327
42.804840 132.299
43.115021 132.271
43.427448 132.242
43.742142 132.214
44.059116 132.184
44.378387 132.155
44.699970 132.125
45.023884 132.096
45.350147 132.066
45.678772 132.037
46.009781 132.008
46.343185 131.980
46.679008 131.953
47.017265 131.927
47.357971 131.904
47.701145 131.883
48.046806 131.864
48.394974 131.847
48.745663 131.830
49.098892 131.813
49.454681 131.795
49.813049 131.775
50.174015 131.752
50.537598 131.727
50.903812 131.699
51.272682 131.669
51.644226 131.637
52.018463 131.605
52.395409 131.573
52.775089 131.540
53.157520 131.507
53.542721 131.475
53.930714 131.442
54.321518 131.410
54.715153 131.379
55.111641 131.348
55.511002 131.317
55.913258 131.286
56.318428 131.255
56.726536 131.223
57.137600 131.190
57.551643 131.155
57.968685 131.120
58.388752 131.083
58.811859 131.046
59.238033 131.009
59.667297 130.972
60.099670 130.935
60.535179 130.899
60.973843 130.862
61.415684 130.826
61.860725 130.790
62.308994 130.754
62.760509 130.718
63.215298 130.681
63.673382 130.644
64.134789 130.607
64.599533 130.568
65.067650 130.530
65.539154 130.491
66.014076 130.453
66.492439 130.416
66.974274 130.379
67.459595 130.343
67.948433 130.307
68.440819 130.272
68.936768 130.235
69.436310 130.198
69.939476 130.161
70.446289 130.122
70.956772 130.083
71.470955 130.043
71.988861 130.004
72.510521 129.964
73.035965 129.924
73.565216 129.885
74.098297 129.845
74.635246 129.805
75.176086 129.765
75.720840 129.725
76.269547 129.684
76.822227 129.644
77.378914 129.602
77.939636 129.560
78.504417 129.517
79.073296 129.473
79.646294 129.428
80.223442 129.383
80.804771 129.339
81.390320 129.294
81.980110 129.249
82.574173 129.204
83.172539 129.159
83.775238 129.114
84.382309 129.069
84.993774 129.025
85.609673 128.980
86.230034 128.934
86.854889 128.888
87.484276 128.842
88.118225 128.795
88.756767 128.748
89.399933 128.701
90.047760 128.654
90.700287 128.607
91.357536 128.560
92.019554 128.513
92.686363 128.466
93.358009 128.418
94.034523 128.371
94.715935 128.323
95.402283 128.277
96.093605 128.231
96.789940 128.185
97.491318 128.139
98.197777 128.092
98.909355 128.044
99.626091 127.996
100.348022 127.946
101.075188 127.896
101.807617 127.847
102.545357 127.797
103.288445 127.747
104.036919 127.698
104.790810 127.648
105.550163 127.600
106.315025 127.551
107.085426 127.503
107.861412 127.454
108.643021 127.405
109.430290 127.355
110.223267 127.305
111.021988 127.254
111.826500 127.204
112.636841 127.154
113.453056 127.105
114.275185 127.056
115.103271 127.007
115.937355 126.958
116.777489 126.907
117.623703 126.855
118.476051 126.803
119.334579 126.751
120.199326 126.701
121.070343 126.653
121.947670 126.606
122.831352 126.559
123.721436 126.511
124.617973 126.461
125.521004 126.410
126.430580 126.358
127.346748 126.306
128.269562 126.255
129.199051 126.206
130.135284 126.157
131.078293 126.108
132.028137 126.059
132.984863 126.010
133.948532 125.961
134.919174 125.911
135.896851 125.861
136.881622 125.810
137.873520 125.759
138.872604 125.707
139.878937 125.655
140.892563 125.605
141.913528 125.557
142.941895 125.510
143.977707 125.463
145.021027 125.415
146.071915 125.366
147.130417 125.314
148.196579 125.262
149.270477 125.210
150.352158 125.157
151.441666 125.105
152.539078 125.054
153.644440 125.001
154.757812 124.949
155.879257 124.897
157.008820 124.845
158.146576 124.793
159.292572 124.741
160.446869 124.689
161.609528 124.639
162.780624 124.591
163.960205 124.544
165.148331 124.497
166.345062 124.451
167.550461 124.404
168.764603 124.356
169.987534 124.307
171.219330 124.258
172.460052 124.209
173.709763 124.159
174.968536 124.110
176.236435 124.059
177.513519 124.009
178.799850 123.959
180.095505 123.910
181.400558 123.861
182.715057 123.814
184.039093 123.770
185.372711 123.729
186.716003 123.690
188.069031 123.652
189.431854 123.614
190.804550 123.576
192.187195 123.538
193.579865 123.499
194.982620 123.458
196.395538 123.415
197.818695 123.369
199.252167 123.323
200.696030 123.276
202.150360 123.228
203.615219 123.181
205.090698 123.134
206.576874 123.088
208.073822 123.042
209.581604 122.995
211.100311 122.947
212.630035 122.900
214.170837 122.853
215.722809 122.807
217.286026 122.763
218.860565 122.720
220.446518 122.677
222.043961 122.636
223.652985 122.594
225.273666 122.552
226.906097 122.510
228.550354 122.467
230.206528 122.425
231.874695 122.384
233.554947 122.343
235.247375 122.303
236.952072 122.264
238.669128 122.225
240.398621 122.188
242.140656 122.150
243.895309 122.112
245.662674 122.071
247.442841 122.028
249.235916 121.985
251.041977 121.942
252.861130 121.900
254.693466 121.859
256.539093 121.818
258.398071 121.777
260.270538 121.737
262.156555 121.698
264.056244 121.659
265.969696 121.621
267.897034 121.583
269.838318 121.545
271.793671 121.506
273.763214 121.467
275.747009 121.429
277.745178 121.391
279.757843 121.354
281.785095 121.317
283.827026 121.280
285.883759 121.244
287.955383 121.209
290.042023 121.174
292.143799 121.140
294.260803 121.106
296.393127 121.072
298.540924 121.037
300.704285 121.002
302.883301 120.968
305.078125 120.935
307.288849 120.903
309.515594 120.871
311.758484 120.840
314.017609 120.808
316.293121 120.777
318.585114 120.746
320.893707 120.716
323.219025 120.686
325.561188 120.656
327.920349 120.628
330.296600 120.599
332.690063 120.571
335.100861 120.542
337.529144 120.514
339.975006 120.486
342.438599 120.462
344.920044 120.439
347.419464 120.417
349.937012 120.394
352.472809 120.371
355.026978 120.348
357.599640 120.325
360.190948 120.303
362.801025 120.282
365.430023 120.262
368.078094 120.243
370.745331 120.224
373.431915 120.205
376.137970 120.187
378.863617 120.168
381.609009 120.148
384.374298 120.126
387.159637 120.104
389.965149 120.085
392.790985 120.073
395.637299 120.065
398.504242 120.057
401.391968 120.048
404.300629 120.037
407.230347 120.027
410.181305 120.016
413.153656 120.006
416.147552 119.997
419.163116 119.988
422.200531 119.980
425.259979 119.972
428.341583 119.965
431.445526 119.958
434.571960 119.952
437.721039 119.947
440.892944 119.943
444.087830 119.941
447.305878 119.939
450.547241 119.937
453.812103 119.936
457.100616 119.934
460.412964 119.932
463.749298 119.930
467.109802 119.928
470.494659 119.926
473.904053 119.925
477.338165 119.927
480.797150 119.932
484.281189 119.941
487.790497 119.951
491.325226 119.964
494.885559 119.977
498.471710 119.990
502.083832 120.003
505.722137 120.015
509.386810 120.028
513.078064 120.041
516.796021 120.054
520.540955 120.069
524.312988 120.084
528.112366 120.099
531.939270 120.116
535.793945 120.133
539.676514 120.151
543.587219 120.168
547.526306 120.184
551.493896 120.202
555.490234 120.222
559.515564 120.244
563.570068 120.267
567.653931 120.292
571.767395 120.318
575.910645 120.344
580.083923 120.371
584.287476 120.400
588.521484 120.430
592.786133 120.460
597.081726 120.490
601.408447 120.520
605.766479 120.550
610.156128 120.579
614.577576 120.609
619.031067 120.639
623.516846 120.669
628.035095 120.700
632.586121 120.732
637.170105 120.765
641.787292 120.798
646.437927 120.832
651.122253 120.866
655.840576 120.901
660.593079 120.937
665.380005 120.976
670.201599 121.016
675.058167 121.056
679.949890 121.097
684.877075 121.139
689.839966 121.182
694.838806 121.224
699.873901 121.267
704.945496 121.309
710.053833 121.352
715.199158 121.397
720.381775 121.443
725.601929 121.489
730.859924 121.536
736.156067 121.584
741.490540 121.632
746.863708 121.680
752.275818 121.729
757.727112 121.778
763.217896 121.827
768.748474 121.876
774.319153 121.924
779.930176 121.973
785.581848 122.021
791.274475 122.070
797.008362 122.118
802.783813 122.166
808.601135 122.215
814.460571 122.265
820.362488 122.316
826.307190 122.367
832.294983 122.417
838.326111 122.467
844.400940 122.517
850.519836 122.568
856.683044 122.619
862.890930 122.671
869.143799 122.724
875.441956 122.778
881.785767 122.833
888.175537 122.889
894.611633 122.945
901.094360 123.002
907.624084 123.059
914.201111 123.115
920.825806 123.173
927.498474 123.232
934.219482 123.292
940.989197 123.353
947.807983 123.414
954.676208 123.476
961.594177 123.539
968.562256 123.602
975.580872 123.667
982.650330 123.731
989.770996 123.797
996.943298 123.863
1004.167542 123.930
1011.444153 123.999
1018.773499 124.067
1026.156006 124.135
1033.591919 124.203
1041.081787 124.271
1048.625854 124.341
1056.224609 124.412
1063.878418 124.485
1071.587769 124.557
1079.352905 124.630
1087.174316 124.703
1095.052490 124.777
1102.987671 124.851
1110.980347 124.925
1119.031006 124.997
1127.140015 125.068
1135.307739 125.139
1143.534668 125.210
1151.821167 125.280
1160.167725 125.349
1168.574829 125.415
1177.042847 125.480
1185.572144 125.545
1194.163330 125.611
1202.816772 125.675
1211.532837 125.739
1220.312134 125.801
1229.155029 125.863
1238.062012 125.924
1247.033569 125.984
1256.070068 126.042
1265.172119 126.098
1274.340088 126.153
1283.574463 126.209
1292.875732 126.265
1302.244385 126.320
1311.681030 126.375
1321.186035 126.428
1330.759888 126.481
1340.403076 126.533
1350.116211 126.585
1359.899658 126.637
1369.754028 126.687
1379.679810 126.737
1389.677490 126.787
1399.747681 126.837
1409.890869 126.888
1420.107544 126.939
1430.398193 126.989
1440.763428 127.039
1451.203735 127.089
1461.719727 127.138
1472.311890 127.187
1482.980835 127.234
1493.727173 127.281
1504.551392 127.327
1515.453979 127.373
1526.435547 127.419
1537.496704 127.465
1548.638062 127.508
1559.860107 127.550
1571.163452 127.592
1582.548706 127.632
1594.016479 127.672
1605.567383 127.710
1617.202026 127.747
1628.920898 127.784
1640.724731 127.820
1652.614136 127.857
1664.589600 127.894
1676.651855 127.932
1688.801514 127.971
1701.039307 128.010
1713.365723 128.050
1725.781494 128.089
1738.287231 128.127
1750.883545 128.166
1763.571167 128.205
1776.350708 128.246
1789.222900 128.292
1802.188354 128.342
1815.247803 128.396
1828.401855 128.452
1841.651245 128.509
1854.996582 128.566
1868.438599 128.624
1881.978027 128.682
1895.615601 128.739
1909.352051 128.796
1923.187988 128.855
1937.124146 128.915
1951.161377 128.976
1965.300293 129.038
1979.541626 129.099
1993.886230 129.160
2008.334717 129.222
2022.887939 129.285
2037.546631 129.348
2052.311523 129.413
2067.183350 129.478
2082.163086 129.544
2097.251221 129.612
2112.448730 129.682
2127.756348 129.754
2143.175049 129.827
2158.705322 129.900
2174.348145 129.973
2190.104248 130.046
2205.974609 130.119
2221.959961 130.193
2238.061279 130.266
2254.279297 130.340
2270.614746 130.414
2287.068604 130.488
2303.641602 130.563
2320.334717 130.637
2337.148926 130.712
2354.084961 130.786
2371.143555 130.861
2388.325928 130.937
2405.632812 131.015
2423.064941 131.093
2440.623535 131.172
2458.309326 131.252
2476.123291 131.333
2494.066406 131.414
2512.139404 131.495
2530.343506 131.577
2548.679443 131.658
2567.148193 131.739
2585.750732 131.818
2604.488037 131.896
2623.361328 131.973
2642.371338 132.050
2661.519043 132.125
2680.805420 132.197
2700.231689 132.265
2719.798584 132.329
2739.507324 132.386
2759.358887 132.436
2779.354248 132.478
2799.494629 132.514
2819.781006 132.542
2840.214355 132.563
2860.795654 132.576
2881.526123 132.580
2902.406738 132.574
2923.438721 132.558
2944.623047 132.532
2965.960938 132.495
2987.453613 132.449
3009.102051 132.392
3030.907227 132.326
3052.870361 132.250
3074.992676 132.163
3097.275391 132.065
3119.719482 131.955
3142.326172 131.833
3165.096680 131.699
3188.032227 131.555
3211.134033 131.399
3234.403320 131.234
3257.841064 131.058
3281.448730 130.871
3305.227539 130.674
3329.178467 130.465
3353.302979 130.246
3377.602295 130.015
3402.077881 129.772
3426.730713 129.517
3451.562256 129.249
3476.573730 128.971
3501.766357 128.686
3527.141602 128.399
3552.700684 128.115
3578.445068 127.839
3604.375977 127.575
3630.494873 127.328
3656.802979 127.100
3683.301758 126.892
3709.992432 126.702
3736.876465 126.523
3763.955322 126.351
3791.230469 126.178
3818.703369 126.000
3846.375244 125.814
3874.247559 125.619
3902.322021 125.416
3930.599854 125.206
3959.082520 124.991
3987.771729 124.772
4016.668701 124.552
4045.775146 124.332
4075.092529 124.117
4104.622559 123.911
4134.366211 123.720
4164.325684 123.549
4194.501953 123.406
4224.896973 123.296
4255.512207 123.229
4286.349609 123.213
4317.410156 123.254
4348.695801 123.357
4380.208008 123.521
4411.948730 123.742
4443.919434 124.011
4476.122070 124.317
4508.558105 124.643
4541.229004 124.973
4574.136719 125.290
4607.282715 125.581
4640.668945 125.835
4674.297363 126.047
4708.169434 126.212
4742.286621 126.328
4776.651367 126.393
4811.265137 126.409
4846.129395 126.381
4881.246582 126.309
4916.618164 126.194
4952.246094 126.037
4988.132324 125.838
5024.278320 125.597
5060.686523 125.315
5097.358398 124.992
5134.295898 124.631
5171.500977 124.234
5208.975586 123.810
5246.722168 123.369
5284.742188 122.927
5323.037598 122.497
5361.610352 122.089
5400.462891 121.711
5439.596680 121.369
5479.014160 121.068
5518.717285 120.808
5558.708008 120.592
5598.988770 120.418
5639.561523 120.286
5680.428223 120.195
5721.590820 120.142
5763.051758 120.126
5804.812988 120.147
5846.876953 120.203
5889.245605 120.293
5931.921387 120.416
5974.906738 120.567
6018.203613 120.744
6061.813965 120.945
6105.740234 121.167
6149.984863 121.410
6194.550293 121.672
6239.438477 121.953
6284.651855 122.247
6330.192871 122.551
6376.063965 122.862
6422.267578 123.175
6468.806152 123.487
6515.681641 123.793
6562.896973 124.086
6610.454590 124.359
6658.356445 124.604
6706.605469 124.816
6755.204102 124.991
6804.155273 125.127
6853.460938 125.224
6903.124023 125.286
6953.146973 125.319
7003.532227 125.333
7054.282715 125.339
7105.400879 125.348
7156.889648 125.367
7208.751465 125.395
7260.989258 125.434
7313.605469 125.483
7366.603027 125.544
7419.984375 125.621
7473.752441 125.721
7527.910156 125.845
7582.460449 125.997
7637.406250 126.176
7692.750000 126.383
7748.494629 126.616
7804.643555 126.878
7861.199219 127.167
7918.164551 127.475
7975.542969 127.790
8033.336914 128.098
8091.549805 128.386
8150.184570 128.643
8209.244141 128.855
8268.731445 129.012
8328.650391 129.101
8389.002930 129.109
8449.792969 129.036
8511.023438 128.891
8572.698242 128.684
8634.819336 128.427
8697.390625 128.132
8760.415039 127.811
8823.896484 127.476
8887.837891 127.138
8952.243164 126.809
9017.115234 126.494
9082.457031 126.193
9148.272461 125.910
9214.564453 125.643
9281.336914 125.395
9348.593750 125.165
9416.337891 124.953
9484.572266 124.756
9553.301758 124.572
9622.529297 124.399
9692.257812 124.237
9762.492188 124.084
9833.235352 123.940
9904.491211 123.804
9976.263672 123.669
10048.555664 123.532
10121.372070 123.388
10194.715820 123.235
10268.590820 123.067
10343.000977 122.872
10417.950195 122.642
10493.443359 122.369
10569.483398 122.046
10646.074219 121.672
10723.219727 121.245
10800.924805 120.768
10879.192383 120.236
10958.027344 119.652
11037.433594 119.023
11117.415039 118.361
11197.976562 117.675
11279.122070 116.979
11360.855469 116.298
11443.180664 115.656
11526.102539 115.062
11609.625000 114.523
11693.752930 114.049
11778.490234 113.645
11863.841797 113.313
11949.812500 113.059
12036.406250 112.903
12123.626953 112.870
12211.479492 112.950
12299.968750 113.101
12389.099609 113.291
12478.875977 113.500
12569.302734 113.712
12660.384766 113.915
12752.126953 114.093
12844.534180 114.208
12937.611328 114.229
13031.362305 114.157
13125.792969 114.014
13220.908203 113.816
13316.711914 113.569
13413.209961 113.279
13510.407227 112.961
13608.309570 112.628
13706.920898 112.274
13806.247070 111.915
13906.292969 111.617
14007.063477 111.456
14108.564453 111.469
14210.800781 111.630
14313.778320 111.893
14417.501953 112.270
14521.977539 112.899
14627.209961 113.877
14733.205078 114.976
14839.967773 115.994
14947.503906 116.904
15055.819336 117.738
15164.919922 118.512
15274.811523 119.109
15385.499023 119.532
15496.988281 119.843
15609.286133 120.018
15722.397461 120.054
15836.328125 119.988
15951.084961 119.832
16066.672852 119.581
16183.098633 119.237
16300.368164 118.799
16418.488281 118.248
16537.462891 117.544
16657.300781 116.651
16778.005859 115.561
16899.585938 114.350
17022.046875 113.108
17145.396484 111.849
17269.638672 110.634
17394.781250 109.531
17520.830078 108.544
17647.792969 107.652
17775.675781 106.842
17904.486328 106.103
18034.230469 105.422
18164.914062 104.785
18296.544922 104.174
18429.128906 103.579
18562.673828 102.997
18697.187500 102.451
18832.675781 102.014
18969.144531 101.817
19106.603516 101.948
19245.058594 102.285
19384.515625 102.533
19524.984375 102.447
19666.470703 101.929
19808.982422 101.116
19952.527344 100.624
