* Measurement data measured by REW V5.20.4
* Source: Trace Arithmetic result A * B
* Format: Trace Arithmetic result A * B
* Dated: Jul 28, 2022 9:40:53 PM
* REW Settings:
*  C-weighting compensation: Off
*  Target level: 75.0 dB
* Note: Trace Arithmetic A times B A = R B = Aster Correction Averaged Fin
* Measurement: R
* Smoothing: 1/48 octave
* Frequency Step: 96 ppo
* Start Frequency: 2.0187378 Hz
*
* Freq(Hz) SPL(dB)
2.018738 -140.088
2.033366 -140.088
2.048101 -140.088
2.062942 -140.088
2.077891 -140.088
2.092948 -140.088
2.108115 -140.088
2.123391 -140.088
2.138778 -140.088
2.154276 -140.088
2.169887 -140.088
2.185611 -140.088
2.201449 -140.088
2.217402 -140.088
2.233470 -140.088
2.249654 -140.088
2.265956 -140.088
2.282376 -140.088
2.298915 -140.088
2.315574 -140.088
2.332354 -140.088
2.349255 -140.088
2.366279 -140.088
2.383426 -140.088
2.400697 -140.088
2.418093 -140.088
2.435616 -140.088
2.453265 -140.088
2.471043 -140.088
2.488949 -140.088
2.506985 -140.088
2.525151 -140.088
2.543450 -140.088
2.561881 -140.088
2.580445 -140.088
2.599144 -140.088
2.617979 -140.088
2.636950 -140.088
2.656058 -140.088
2.675305 -140.088
2.694691 -140.088
2.714218 -140.088
2.733886 -140.088
2.753697 -140.088
2.773652 -140.088
2.793751 -140.088
2.813995 -140.088
2.834387 -140.088
2.854926 -140.088
2.875614 -140.088
2.896452 -140.088
2.917441 -140.088
2.938582 -140.088
2.959876 -140.088
2.981324 -140.088
3.002928 -140.088
3.024688 -140.088
3.046607 -140.088
3.068684 -140.088
3.090921 -140.088
3.113319 -140.088
3.135879 -140.088
3.158603 -140.088
3.181491 -140.088
3.204546 -140.088
3.227767 -140.088
3.251157 -140.088
3.274716 -140.088
3.298446 -140.088
3.322348 -140.088
3.346423 -140.088
3.370673 -140.088
3.395098 -140.088
3.419700 -140.088
3.444481 -140.088
3.469441 -140.088
3.494582 -140.088
3.519905 -140.088
3.545412 -140.088
3.571103 -140.088
3.596981 -140.088
3.623046 -140.088
3.649300 -140.088
3.675745 -140.088
3.702381 -140.088
3.729210 -140.088
3.756233 -140.088
3.783452 -140.088
3.810869 -140.088
3.838484 -140.088
3.866299 -140.088
3.894316 -140.088
3.922536 -140.088
3.950960 -140.088
3.979590 -140.088
4.008428 -140.088
4.037475 -140.088
4.066732 -140.088
4.096201 -140.088
4.125884 -140.088
4.155781 -140.088
4.185896 -140.088
4.216228 -140.088
4.246781 -140.088
4.277555 -140.088
4.308552 -140.088
4.339773 -140.088
4.371221 -140.088
4.402897 -140.088
4.434802 -140.088
4.466938 -140.088
4.499308 -140.088
4.531911 -140.088
4.564752 -140.088
4.597830 -140.088
4.631147 -140.088
4.664707 -140.088
4.698509 -140.088
4.732556 -140.088
4.766850 -140.088
4.801393 -140.088
4.836186 -140.088
4.871231 -140.088
4.906530 -140.088
4.942085 -140.088
4.977897 -140.088
5.013969 -140.088
5.050302 -140.088
5.086899 -140.088
5.123761 -140.088
5.160890 -140.088
5.198287 -140.088
5.235956 -140.088
5.273898 -140.088
5.312115 -140.088
5.350609 -140.088
5.389381 -140.088
5.428435 -140.088
5.467772 -140.088
5.507394 -140.088
5.547303 -140.088
5.587501 -140.088
5.627990 -140.088
5.668773 -140.088
5.709851 -140.088
5.751227 -140.088
5.792902 -140.088
5.834880 -140.088
5.877162 -140.088
5.919751 -140.088
5.962647 -140.088
6.005855 -140.088
6.049376 -140.088
6.093212 -140.088
6.137366 -140.088
6.181839 -140.088
6.226635 -140.088
6.271756 -140.088
6.317204 -140.088
6.362981 -140.088
6.409090 -140.088
6.455533 -140.088
6.502312 -140.088
6.549431 -140.088
6.596891 -140.088
6.644695 -140.088
6.692845 -140.088
6.741344 -140.088
6.790195 -140.088
6.839399 -140.088
6.888960 -140.088
6.938880 -140.088
6.989162 -140.088
7.039808 -140.088
7.090822 -140.088
7.142205 -140.088
7.193960 -140.088
7.246090 -140.088
7.298599 -140.088
7.351488 -140.088
7.404759 -140.088
7.458417 -140.088
7.512464 -140.088
7.566903 -140.088
7.621736 -140.088
7.676966 -140.088
7.732596 -140.088
7.788630 -140.088
7.845069 -140.088
7.901918 -140.088
7.959178 -140.088
8.016854 -140.088
8.074947 -140.088
8.133462 -140.088
8.192400 -140.088
8.251765 -140.088
8.311561 -140.088
8.371790 -140.088
8.432455 -140.088
8.493560 -140.088
8.555108 -140.088
8.617102 -140.088
8.679544 -140.088
8.742440 -140.088
8.805792 -140.088
8.869602 -140.088
8.933875 -140.088
8.998613 -140.088
9.063821 -140.088
9.129501 -140.088
9.195658 -140.088
9.262293 -140.088
9.329412 -140.088
9.397017 -140.088
9.465111 -140.088
9.533699 -140.088
9.602784 -140.088
9.672370 -140.088
9.742460 -140.088
9.813058 -140.088
9.884168 -140.088
9.955792 -140.088
10.027936 -140.088
10.100602 -140.088
10.173796 -140.088
10.247519 -140.088
10.321777 -140.088
10.396573 -140.088
10.471910 -140.088
10.547794 -140.088
10.624228 -140.088
10.701216 -140.088
10.778761 -140.088
10.856868 -140.088
10.935541 -140.088
11.014785 -140.088
11.094603 -140.088
11.174998 -140.088
11.255977 -140.088
11.337543 -140.088
11.419699 -140.088
11.502451 -140.088
11.585802 -140.088
11.669758 -140.088
11.754322 -140.088
11.839499 -140.088
11.925292 -140.088
12.011707 -140.088
12.098749 -140.088
12.186421 -140.088
12.274729 -140.088
12.363676 -140.088
12.453268 -140.088
12.543509 -140.088
12.634405 -140.088
12.725959 -140.088
12.818176 -140.088
12.911062 -140.088
13.004622 -140.088
13.098858 -140.088
13.193778 -140.088
13.289386 -140.088
13.385686 -140.088
13.482684 -140.088
13.580385 -140.088
13.678794 -140.088
13.777916 -140.088
13.877756 -140.088
13.978320 -140.088
14.079613 -140.088
14.181640 -140.088
14.284406 -140.088
14.387917 -140.087
14.492177 -140.087
14.597194 -140.074
14.702971 -140.043
14.809515 -139.940
14.916831 -139.714
15.024924 -137.894
15.133801 -133.290
15.243467 -127.141
15.353928 -120.449
15.465188 -113.029
15.577255 -105.710
15.690134 -98.411
15.803831 -91.100
15.918352 -83.782
16.033703 -76.454
16.149889 -69.118
16.266918 -61.775
16.384794 -54.426
16.503525 -47.072
16.623116 -39.715
16.743574 -32.356
16.864904 -24.999
16.987114 -17.644
17.110210 -10.295
17.234198 -2.953
17.359083 4.377
17.484875 11.694
17.611578 18.992
17.739199 26.269
17.867744 33.518
17.997221 40.735
18.127636 47.912
18.258997 55.043
18.391310 62.119
18.524580 69.127
18.658817 76.058
18.794027 82.892
18.930216 89.619
19.067392 96.199
19.205563 102.623
19.344734 108.825
19.484915 114.777
19.626110 120.378
19.768330 125.491
19.911579 130.117
20.055866 133.044
20.201199 133.330
20.347586 133.393
20.495033 133.412
20.643549 133.436
20.793140 133.448
20.943815 133.460
21.095583 133.470
21.248449 133.480
21.402424 133.488
21.557514 133.493
21.713728 133.496
21.871075 133.495
22.029562 133.493
22.189198 133.489
22.349989 133.484
22.511946 133.477
22.675077 133.470
22.839390 133.462
23.004894 133.454
23.171597 133.446
23.339508 133.439
23.508636 133.433
23.678989 133.426
23.850576 133.419
24.023407 133.411
24.197491 133.403
24.372835 133.394
24.549450 133.385
24.727345 133.376
24.906528 133.367
25.087011 133.359
25.268803 133.350
25.451910 133.341
25.636345 133.333
25.822117 133.325
26.009235 133.317
26.197708 133.309
26.387548 133.302
26.578764 133.295
26.771364 133.288
26.965361 133.282
27.160763 133.275
27.357580 133.268
27.555824 133.260
27.755505 133.253
27.956633 133.245
28.159218 133.238
28.363272 133.231
28.568804 133.225
28.775826 133.219
28.984346 133.212
29.194380 133.204
29.405933 133.196
29.619020 133.187
29.833652 133.178
30.049839 133.167
30.267593 133.157
30.486925 133.145
30.707846 133.134
30.930367 133.122
31.154501 133.111
31.380259 133.100
31.607653 133.090
31.836695 133.079
32.067398 133.067
32.299770 133.054
32.533829 133.040
32.769581 133.025
33.007042 133.010
33.246223 132.995
33.487141 132.980
33.729801 132.966
33.974220 132.951
34.220413 132.936
34.468388 132.920
34.718159 132.904
34.969742 132.887
35.223148 132.870
35.478390 132.854
35.735481 132.838
35.994434 132.822
36.255264 132.807
36.517986 132.791
36.782612 132.774
37.049152 132.758
37.317627 132.740
37.588047 132.723
37.860424 132.705
38.134777 132.686
38.411118 132.668
38.689461 132.649
38.969822 132.629
39.252213 132.609
39.536652 132.589
39.823151 132.568
40.111725 132.546
40.402390 132.524
40.695164 132.501
40.990059 132.478
41.287090 132.454
41.586273 132.429
41.887623 132.405
42.191158 132.380
42.496891 132.354
42.804840 132.328
43.115021 132.302
43.427448 132.275
43.742142 132.248
44.059116 132.221
44.378387 132.193
44.699970 132.165
45.023884 132.137
45.350147 132.109
45.678772 132.080
46.009781 132.052
46.343185 132.022
46.679008 131.993
47.017265 131.962
47.357971 131.932
47.701145 131.901
48.046806 131.871
48.394974 131.839
48.745663 131.808
49.098892 131.777
49.454681 131.746
49.813049 131.714
50.174015 131.683
50.537598 131.652
50.903812 131.620
51.272682 131.588
51.644226 131.556
52.018463 131.523
52.395409 131.490
52.775089 131.457
53.157520 131.423
53.542721 131.388
53.930714 131.353
54.321518 131.317
54.715153 131.281
55.111641 131.245
55.511002 131.208
55.913258 131.171
56.318428 131.133
56.726536 131.095
57.137600 131.057
57.551643 131.019
57.968685 130.982
58.388752 130.945
58.811859 130.910
59.238033 130.874
59.667297 130.839
60.099670 130.803
60.535179 130.767
60.973843 130.730
61.415684 130.694
61.860725 130.657
62.308994 130.620
62.760509 130.584
63.215298 130.547
63.673382 130.510
64.134789 130.473
64.599533 130.435
65.067650 130.396
65.539154 130.356
66.014076 130.317
66.492439 130.277
66.974274 130.237
67.459595 130.196
67.948433 130.156
68.440819 130.115
68.936768 130.073
69.436310 130.031
69.939476 129.989
70.446289 129.946
70.956772 129.903
71.470955 129.860
71.988861 129.817
72.510521 129.774
73.035965 129.731
73.565216 129.689
74.098297 129.647
74.635246 129.605
75.176086 129.563
75.720840 129.522
76.269547 129.482
76.822227 129.442
77.378914 129.402
77.939636 129.361
78.504417 129.320
79.073296 129.277
79.646294 129.235
80.223442 129.191
80.804771 129.148
81.390320 129.104
81.980110 129.059
82.574173 129.014
83.172539 128.970
83.775238 128.925
84.382309 128.880
84.993774 128.835
85.609673 128.789
86.230034 128.743
86.854889 128.696
87.484276 128.649
88.118225 128.600
88.756767 128.552
89.399933 128.503
90.047760 128.454
90.700287 128.405
91.357536 128.356
92.019554 128.307
92.686363 128.257
93.358009 128.208
94.034523 128.159
94.715935 128.110
95.402283 128.061
96.093605 128.013
96.789940 127.965
97.491318 127.916
98.197777 127.867
98.909355 127.816
99.626091 127.765
100.348022 127.712
101.075188 127.660
101.807617 127.607
102.545357 127.554
103.288445 127.502
104.036919 127.450
104.790810 127.398
105.550163 127.347
106.315025 127.296
107.085426 127.246
107.861412 127.196
108.643021 127.144
109.430290 127.092
110.223267 127.039
111.021988 126.986
111.826500 126.933
112.636841 126.881
113.453056 126.831
114.275185 126.780
115.103271 126.730
115.937355 126.678
116.777489 126.626
117.623703 126.572
118.476051 126.518
119.334579 126.465
120.199326 126.414
121.070343 126.364
121.947670 126.315
122.831352 126.266
123.721436 126.216
124.617973 126.165
125.521004 126.112
126.430580 126.059
127.346748 126.007
128.269562 125.955
129.199051 125.905
130.135284 125.856
131.078293 125.806
132.028137 125.756
132.984863 125.706
133.948532 125.654
134.919174 125.601
135.896851 125.549
136.881622 125.496
137.873520 125.443
138.872604 125.390
139.878937 125.339
140.892563 125.288
141.913528 125.238
142.941895 125.190
143.977707 125.143
145.021027 125.094
146.071915 125.045
147.130417 124.993
148.196579 124.940
149.270477 124.887
150.352158 124.833
151.441666 124.781
152.539078 124.729
153.644440 124.678
154.757812 124.627
155.879257 124.576
157.008820 124.524
158.146576 124.472
159.292572 124.420
160.446869 124.369
161.609528 124.319
162.780624 124.271
163.960205 124.223
165.148331 124.175
166.345062 124.127
167.550461 124.079
168.764603 124.029
169.987534 123.979
171.219330 123.928
172.460052 123.877
173.709763 123.826
174.968536 123.774
176.236435 123.721
177.513519 123.668
178.799850 123.615
180.095505 123.561
181.400558 123.508
182.715057 123.455
184.039093 123.404
185.372711 123.354
186.716003 123.305
188.069031 123.258
189.431854 123.211
190.804550 123.164
192.187195 123.117
193.579865 123.069
194.982620 123.019
196.395538 122.969
197.818695 122.917
199.252167 122.864
200.696030 122.812
202.150360 122.761
203.615219 122.710
205.090698 122.660
206.576874 122.611
208.073822 122.562
209.581604 122.513
211.100311 122.464
212.630035 122.415
214.170837 122.367
215.722809 122.319
217.286026 122.272
218.860565 122.226
220.446518 122.180
222.043961 122.136
223.652985 122.091
225.273666 122.047
226.906097 122.003
228.550354 121.959
230.206528 121.916
231.874695 121.873
233.554947 121.830
235.247375 121.787
236.952072 121.746
238.669128 121.704
240.398621 121.663
242.140656 121.622
243.895309 121.582
245.662674 121.542
247.442841 121.503
249.235916 121.464
251.041977 121.426
252.861130 121.389
254.693466 121.352
256.539093 121.315
258.398071 121.279
260.270538 121.242
262.156555 121.206
264.056244 121.170
265.969696 121.133
267.897034 121.097
269.838318 121.060
271.793671 121.023
273.763214 120.987
275.747009 120.950
277.745178 120.914
279.757843 120.878
281.785095 120.842
283.827026 120.806
285.883759 120.771
287.955383 120.736
290.042023 120.700
292.143799 120.666
294.260803 120.631
296.393127 120.598
298.540924 120.564
300.704285 120.532
302.883301 120.500
305.078125 120.468
307.288849 120.437
309.515594 120.407
311.758484 120.377
314.017609 120.347
316.293121 120.318
318.585114 120.289
320.893707 120.261
323.219025 120.233
325.561188 120.206
327.920349 120.180
330.296600 120.154
332.690063 120.129
335.100861 120.104
337.529144 120.081
339.975006 120.058
342.438599 120.035
344.920044 120.014
347.419464 119.993
349.937012 119.973
352.472809 119.953
355.026978 119.933
357.599640 119.915
360.190948 119.897
362.801025 119.880
365.430023 119.864
368.078094 119.849
370.745331 119.834
373.431915 119.820
376.137970 119.806
378.863617 119.793
381.609009 119.782
384.374298 119.770
387.159637 119.760
389.965149 119.749
392.790985 119.740
395.637299 119.731
398.504242 119.722
401.391968 119.715
404.300629 119.709
407.230347 119.704
410.181305 119.700
413.153656 119.697
416.147552 119.695
419.163116 119.694
422.200531 119.694
425.259979 119.695
428.341583 119.697
431.445526 119.701
434.571960 119.705
437.721039 119.710
440.892944 119.716
444.087830 119.722
447.305878 119.729
450.547241 119.737
453.812103 119.746
457.100616 119.755
460.412964 119.765
463.749298 119.775
467.109802 119.785
470.494659 119.796
473.904053 119.809
477.338165 119.825
480.797150 119.845
484.281189 119.868
487.790497 119.894
491.325226 119.921
494.885559 119.949
498.471710 119.978
502.083832 120.006
505.722137 120.035
509.386810 120.065
513.078064 120.095
516.796021 120.126
520.540955 120.157
524.312988 120.189
528.112366 120.223
531.939270 120.259
535.793945 120.296
539.676514 120.333
543.587219 120.373
547.526306 120.413
551.493896 120.455
555.490234 120.498
559.515564 120.542
563.570068 120.588
567.653931 120.636
571.767395 120.685
575.910645 120.737
580.083923 120.790
584.287476 120.844
588.521484 120.900
592.786133 120.957
597.081726 121.015
601.408447 121.073
605.766479 121.132
610.156128 121.192
614.577576 121.251
619.031067 121.312
623.516846 121.374
628.035095 121.437
632.586121 121.502
637.170105 121.567
641.787292 121.634
646.437927 121.702
651.122253 121.771
655.840576 121.842
660.593079 121.914
665.380005 121.989
670.201599 122.065
675.058167 122.144
679.949890 122.225
684.877075 122.306
689.839966 122.388
694.838806 122.470
699.873901 122.553
704.945496 122.636
710.053833 122.721
715.199158 122.808
720.381775 122.896
725.601929 122.985
730.859924 123.075
736.156067 123.166
741.490540 123.258
746.863708 123.351
752.275818 123.445
757.727112 123.539
763.217896 123.633
768.748474 123.727
774.319153 123.822
779.930176 123.917
785.581848 124.011
791.274475 124.104
797.008362 124.197
802.783813 124.289
808.601135 124.381
814.460571 124.474
820.362488 124.567
826.307190 124.660
832.294983 124.753
838.326111 124.845
844.400940 124.936
850.519836 125.026
856.683044 125.116
862.890930 125.206
869.143799 125.296
875.441956 125.385
881.785767 125.474
888.175537 125.563
894.611633 125.650
901.094360 125.735
907.624084 125.820
914.201111 125.904
920.825806 125.987
927.498474 126.070
934.219482 126.152
940.989197 126.233
947.807983 126.312
954.676208 126.390
961.594177 126.466
968.562256 126.540
975.580872 126.613
982.650330 126.684
989.770996 126.754
996.943298 126.823
1004.167542 126.890
1011.444153 126.955
1018.773499 127.018
1026.156006 127.080
1033.591919 127.139
1041.081787 127.198
1048.625854 127.256
1056.224609 127.313
1063.878418 127.369
1071.587769 127.423
1079.352905 127.475
1087.174316 127.526
1095.052490 127.575
1102.987671 127.622
1110.980347 127.667
1119.031006 127.710
1127.140015 127.751
1135.307739 127.790
1143.534668 127.826
1151.821167 127.861
1160.167725 127.893
1168.574829 127.922
1177.042847 127.949
1185.572144 127.973
1194.163330 127.996
1202.816772 128.017
1211.532837 128.038
1220.312134 128.056
1229.155029 128.073
1238.062012 128.088
1247.033569 128.101
1256.070068 128.112
1265.172119 128.122
1274.340088 128.131
1283.574463 128.140
1292.875732 128.149
1302.244385 128.157
1311.681030 128.164
1321.186035 128.170
1330.759888 128.176
1340.403076 128.180
1350.116211 128.185
1359.899658 128.188
1369.754028 128.191
1379.679810 128.195
1389.677490 128.198
1399.747681 128.202
1409.890869 128.206
1420.107544 128.210
1430.398193 128.214
1440.763428 128.218
1451.203735 128.223
1461.719727 128.227
1472.311890 128.230
1482.980835 128.233
1493.727173 128.235
1504.551392 128.238
1515.453979 128.240
1526.435547 128.243
1537.496704 128.245
1548.638062 128.247
1559.860107 128.248
1571.163452 128.248
1582.548706 128.248
1594.016479 128.247
1605.567383 128.245
1617.202026 128.243
1628.920898 128.240
1640.724731 128.238
1652.614136 128.236
1664.589600 128.236
1676.651855 128.236
1688.801514 128.238
1701.039307 128.241
1713.365723 128.245
1725.781494 128.249
1738.287231 128.252
1750.883545 128.256
1763.571167 128.262
1776.350708 128.271
1789.222900 128.284
1802.188354 128.301
1815.247803 128.321
1828.401855 128.342
1841.651245 128.364
1854.996582 128.387
1868.438599 128.412
1881.978027 128.438
1895.615601 128.467
1909.352051 128.498
1923.187988 128.532
1937.124146 128.567
1951.161377 128.604
1965.300293 128.642
1979.541626 128.680
1993.886230 128.719
2008.334717 128.760
2022.887939 128.801
2037.546631 128.844
2052.311523 128.888
2067.183350 128.934
2082.163086 128.982
2097.251221 129.033
2112.448730 129.087
2127.756348 129.143
2143.175049 129.201
2158.705322 129.261
2174.348145 129.322
2190.104248 129.383
2205.974609 129.445
2221.959961 129.509
2238.061279 129.574
2254.279297 129.641
2270.614746 129.709
2287.068604 129.779
2303.641602 129.851
2320.334717 129.924
2337.148926 129.999
2354.084961 130.075
2371.143555 130.154
2388.325928 130.235
2405.632812 130.319
2423.064941 130.406
2440.623535 130.495
2458.309326 130.587
2476.123291 130.682
2494.066406 130.780
2512.139404 130.881
2530.343506 130.984
2548.679443 131.089
2567.148193 131.195
2585.750732 131.304
2604.488037 131.414
2623.361328 131.525
2642.371338 131.638
2661.519043 131.753
2680.805420 131.868
2700.231689 131.982
2719.798584 132.094
2739.507324 132.202
2759.358887 132.305
2779.354248 132.402
2799.494629 132.495
2819.781006 132.582
2840.214355 132.662
2860.795654 132.734
2881.526123 132.796
2902.406738 132.849
2923.438721 132.890
2944.623047 132.919
2965.960938 132.935
2987.453613 132.938
3009.102051 132.926
3030.907227 132.901
3052.870361 132.860
3074.992676 132.804
3097.275391 132.731
3119.719482 132.640
3142.326172 132.532
3165.096680 132.407
3188.032227 132.265
3211.134033 132.108
3234.403320 131.936
3257.841064 131.750
3281.448730 131.549
3305.227539 131.334
3329.178467 131.105
3353.302979 130.862
3377.602295 130.607
3402.077881 130.339
3426.730713 130.058
3451.562256 129.765
3476.573730 129.464
3501.766357 129.156
3527.141602 128.848
3552.700684 128.543
3578.445068 128.247
3604.375977 127.964
3630.494873 127.695
3656.802979 127.443
3683.301758 127.207
3709.992432 126.982
3736.876465 126.764
3763.955322 126.548
3791.230469 126.328
3818.703369 126.103
3846.375244 125.869
3874.247559 125.627
3902.322021 125.380
3930.599854 125.128
3959.082520 124.875
3987.771729 124.622
4016.668701 124.373
4045.775146 124.131
4075.092529 123.900
4104.622559 123.686
4134.366211 123.493
4164.325684 123.329
4194.501953 123.200
4224.896973 123.112
4255.512207 123.073
4286.349609 123.090
4317.410156 123.165
4348.695801 123.301
4380.208008 123.495
4411.948730 123.740
4443.919434 124.024
4476.122070 124.336
4508.558105 124.660
4541.229004 124.979
4574.136719 125.280
4607.282715 125.552
4640.668945 125.784
4674.297363 125.972
4708.169434 126.113
4742.286621 126.206
4776.651367 126.251
4811.265137 126.251
4846.129395 126.207
4881.246582 126.124
4916.618164 126.001
4952.246094 125.838
4988.132324 125.635
5024.278320 125.389
5060.686523 125.098
5097.358398 124.759
5134.295898 124.376
5171.500977 123.949
5208.975586 123.486
5246.722168 122.998
5284.742188 122.502
5323.037598 122.011
5361.610352 121.541
5400.462891 121.101
5439.596680 120.701
5479.014160 120.342
5518.717285 120.029
5558.708008 119.764
5598.988770 119.547
5639.561523 119.377
5680.428223 119.251
5721.590820 119.168
5763.051758 119.124
5804.812988 119.121
5846.876953 119.157
5889.245605 119.230
5931.921387 119.336
5974.906738 119.473
6018.203613 119.638
6061.813965 119.831
6105.740234 120.049
6149.984863 120.292
6194.550293 120.555
6239.438477 120.837
6284.651855 121.133
6330.192871 121.444
6376.063965 121.763
6422.267578 122.087
6468.806152 122.411
6515.681641 122.730
6562.896973 123.038
6610.454590 123.328
6658.356445 123.593
6706.605469 123.826
6755.204102 124.024
6804.155273 124.183
6853.460938 124.305
6903.124023 124.393
6953.146973 124.451
7003.532227 124.489
7054.282715 124.518
7105.400879 124.549
7156.889648 124.587
7208.751465 124.634
7260.989258 124.689
7313.605469 124.752
7366.603027 124.827
7419.984375 124.917
7473.752441 125.029
7527.910156 125.167
7582.460449 125.332
7637.406250 125.524
7692.750000 125.745
7748.494629 125.996
7804.643555 126.277
7861.199219 126.591
7918.164551 126.927
7975.542969 127.276
8033.336914 127.623
8091.549805 127.957
8150.184570 128.265
8209.244141 128.534
8268.731445 128.749
8328.650391 128.895
8389.002930 128.960
8449.792969 128.940
8511.023438 128.841
8572.698242 128.671
8634.819336 128.440
8697.390625 128.163
8760.415039 127.851
8823.896484 127.518
8887.837891 127.176
8952.243164 126.837
9017.115234 126.509
9082.457031 126.194
9148.272461 125.894
9214.564453 125.612
9281.336914 125.349
9348.593750 125.104
9416.337891 124.878
9484.572266 124.668
9553.301758 124.471
9622.529297 124.287
9692.257812 124.115
9762.492188 123.953
9833.235352 123.801
9904.491211 123.658
9976.263672 123.520
10048.555664 123.381
10121.372070 123.236
10194.715820 123.083
10268.590820 122.916
10343.000977 122.726
10417.950195 122.503
10493.443359 122.237
10569.483398 121.921
10646.074219 121.552
10723.219727 121.134
10800.924805 120.667
10879.192383 120.148
10958.027344 119.575
11037.433594 118.958
11117.415039 118.308
11197.976562 117.633
11279.122070 116.948
11360.855469 116.278
11443.180664 115.644
11526.102539 115.056
11609.625000 114.521
11693.752930 114.051
11778.490234 113.652
11863.841797 113.326
11949.812500 113.078
12036.406250 112.928
12123.626953 112.902
12211.479492 112.988
12299.968750 113.144
12389.099609 113.336
12478.875977 113.545
12569.302734 113.756
12660.384766 113.960
12752.126953 114.143
12844.534180 114.262
12937.611328 114.285
13031.362305 114.214
13125.792969 114.067
13220.908203 113.862
13316.711914 113.605
13413.209961 113.301
13510.407227 112.963
13608.309570 112.603
13706.920898 112.216
13806.247070 111.817
13906.292969 111.473
14007.063477 111.261
14108.564453 111.220
14210.800781 111.324
14313.778320 111.531
14417.501953 111.851
14521.977539 112.425
14627.209961 113.354
14733.205078 114.410
14839.967773 115.394
14947.503906 116.275
15055.819336 117.088
15164.919922 117.842
15274.811523 118.423
15385.499023 118.831
15496.988281 119.130
15609.286133 119.297
15722.397461 119.328
15836.328125 119.258
15951.084961 119.101
16066.672852 118.854
16183.098633 118.522
16300.368164 118.108
16418.488281 117.595
16537.462891 116.944
16657.300781 116.121
16778.005859 115.115
16899.585938 114.004
17022.046875 112.867
17145.396484 111.715
17269.638672 110.601
17394.781250 109.588
17520.830078 108.676
17647.792969 107.837
17775.675781 107.055
17904.486328 106.318
18034.230469 105.613
18164.914062 104.929
18296.544922 104.255
18429.128906 103.580
18562.673828 102.906
18697.187500 102.259
18832.675781 101.722
18969.144531 101.437
19106.603516 101.479
19245.058594 101.706
19384.515625 101.830
19524.984375 101.621
19666.470703 100.992
19808.982422 100.084
19952.527344 99.544
