* Measurement data measured by REW V5.20.4
* Source: Trace Arithmetic result A * B
* Format: Trace Arithmetic result A * B
* Dated: Jun 22, 2022 9:33:10 PM
* REW Settings:
*  C-weighting compensation: Off
*  Target level: 75.0 dB
* Note: Trace Arithmetic A times B A = Tanya L B = Aster Correction Averaged Fin
* Measurement: Tanya L
* Smoothing: 1/48 octave
* Frequency Step: 96 ppo
* Start Frequency: 20.0 Hz
*
* Freq(Hz) SPL(dB)
20.017769 69.870
20.162827 69.918
20.308935 70.054
20.456102 70.097
20.604336 70.146
20.753643 70.187
20.904032 70.226
21.055511 70.263
21.208088 70.299
21.361771 70.334
21.516567 70.366
21.672485 70.395
21.829533 70.422
21.987719 70.447
22.147051 70.470
22.307537 70.493
22.469187 70.515
22.632008 70.537
22.796009 70.559
22.961199 70.581
23.127584 70.604
23.295176 70.628
23.463982 70.653
23.634012 70.679
23.805275 70.704
23.977777 70.729
24.151531 70.753
24.326544 70.777
24.502825 70.801
24.680382 70.824
24.859226 70.848
25.039366 70.873
25.220812 70.897
25.403572 70.923
25.587656 70.949
25.773075 70.977
25.959837 71.005
26.147953 71.035
26.337431 71.067
26.528282 71.100
26.720516 71.134
26.914145 71.169
27.109175 71.204
27.305618 71.240
27.503487 71.275
27.702787 71.309
27.903534 71.343
28.105734 71.376
28.309401 71.409
28.514542 71.440
28.721170 71.470
28.929296 71.499
29.138929 71.525
29.350082 71.550
29.562765 71.573
29.776989 71.595
29.992765 71.616
30.210106 71.637
30.429020 71.656
30.649521 71.676
30.871620 71.696
31.095329 71.717
31.320660 71.738
31.547623 71.760
31.776230 71.782
32.006493 71.802
32.238426 71.822
32.472038 71.840
32.707344 71.857
32.944355 71.873
33.183083 71.889
33.423542 71.903
33.665741 71.917
33.909698 71.930
34.155422 71.942
34.402927 71.952
34.652225 71.961
34.903328 71.968
35.156250 71.975
35.411007 71.981
35.667610 71.986
35.926071 71.992
36.186405 71.998
36.448627 72.003
36.712749 72.007
36.978786 72.012
37.246750 72.017
37.516655 72.022
37.788517 72.028
38.062347 72.035
38.338161 72.044
38.615974 72.054
38.895802 72.066
39.177658 72.079
39.461555 72.093
39.747509 72.108
40.035538 72.124
40.325653 72.140
40.617870 72.155
40.912205 72.170
41.208672 72.184
41.507286 72.195
41.808064 72.205
42.111023 72.213
42.416176 72.218
42.723541 72.222
43.033134 72.223
43.344971 72.222
43.659065 72.220
43.975437 72.216
44.294102 72.212
44.615074 72.207
44.938374 72.201
45.264015 72.196
45.592018 72.190
45.922398 72.184
46.255169 72.179
46.590351 72.175
46.927963 72.173
47.268024 72.174
47.610550 72.176
47.955555 72.179
48.303062 72.182
48.653088 72.185
49.005650 72.185
49.360764 72.183
49.718452 72.179
50.078732 72.173
50.441624 72.167
50.807144 72.162
51.175312 72.157
51.546150 72.155
51.919674 72.152
52.295906 72.150
52.674862 72.147
53.056564 72.142
53.441032 72.136
53.828289 72.127
54.218349 72.118
54.611237 72.107
55.006973 72.095
55.405575 72.081
55.807068 72.068
56.211468 72.055
56.618801 72.044
57.029083 72.035
57.442341 72.030
57.858593 72.028
58.277859 72.025
58.700165 72.018
59.125530 72.004
59.553978 71.978
59.985531 71.942
60.420212 71.898
60.858040 71.852
61.299042 71.811
61.743240 71.781
62.190659 71.767
62.641319 71.770
63.095245 71.784
63.552460 71.803
64.012985 71.819
64.476852 71.826
64.944077 71.821
65.414688 71.804
65.888710 71.779
66.366165 71.752
66.847084 71.728
67.331482 71.713
67.819397 71.706
68.310844 71.705
68.805855 71.704
69.304451 71.696
69.806656 71.676
70.312500 71.641
70.822014 71.591
71.335220 71.532
71.852142 71.470
72.372810 71.415
72.897255 71.375
73.425499 71.354
73.957573 71.354
74.493500 71.373
75.033310 71.403
75.577034 71.439
76.124695 71.470
76.676323 71.491
77.231949 71.495
77.791603 71.479
78.355316 71.444
78.923111 71.392
79.495018 71.327
80.071075 71.254
80.651306 71.180
81.235741 71.109
81.824409 71.045
82.417343 70.989
83.014572 70.944
83.616127 70.911
84.222046 70.889
84.832352 70.879
85.447083 70.878
86.066269 70.882
86.689941 70.888
87.318130 70.892
87.950874 70.891
88.588203 70.884
89.230148 70.872
89.876747 70.855
90.528030 70.834
91.184036 70.810
91.844795 70.782
92.510338 70.752
93.180702 70.721
93.855927 70.690
94.536049 70.660
95.221100 70.630
95.911110 70.600
96.606125 70.567
97.306175 70.531
98.011299 70.491
98.721527 70.449
99.436905 70.404
100.157463 70.360
100.883247 70.316
101.614288 70.274
102.350624 70.233
103.092300 70.194
103.839348 70.155
104.591812 70.116
105.349724 70.079
106.113129 70.044
106.882065 70.010
107.656578 69.976
108.436699 69.944
109.222473 69.913
110.013947 69.883
110.811150 69.856
111.614136 69.830
112.422935 69.805
113.237602 69.781
114.058167 69.757
114.884682 69.730
115.717186 69.701
116.555717 69.667
117.400330 69.629
118.251060 69.587
119.107956 69.543
119.971062 69.498
120.840424 69.454
121.716080 69.412
122.598083 69.372
123.486481 69.333
124.381317 69.295
125.282639 69.257
126.190491 69.221
127.104919 69.186
128.025970 69.153
128.953705 69.121
129.888153 69.089
130.829376 69.056
131.777420 69.022
132.732330 68.987
133.694168 68.950
134.662964 68.912
135.638794 68.871
136.621689 68.828
137.611710 68.784
138.608902 68.740
139.613312 68.697
140.625000 68.656
141.644028 68.618
142.670441 68.581
143.704285 68.545
144.745621 68.509
145.794510 68.474
146.850998 68.437
147.915146 68.398
148.987000 68.358
150.066620 68.318
151.154068 68.278
152.249390 68.240
153.352646 68.203
154.463898 68.168
155.583206 68.133
156.710632 68.097
157.846222 68.060
158.990036 68.022
160.142151 67.982
161.302612 67.943
162.471481 67.904
163.648819 67.866
164.834686 67.830
166.029144 67.794
167.232254 67.758
168.444092 67.721
169.664703 67.682
170.894165 67.642
172.132538 67.600
173.379883 67.556
174.636261 67.510
175.901749 67.463
177.176407 67.416
178.460297 67.369
179.753494 67.322
181.056061 67.276
182.368073 67.232
183.689590 67.189
185.020676 67.148
186.361404 67.109
187.711853 67.069
189.072098 67.030
190.442200 66.991
191.822220 66.951
193.212250 66.910
194.612350 66.869
196.022598 66.827
197.443054 66.783
198.873810 66.738
200.314926 66.693
201.766495 66.646
203.228577 66.600
204.701248 66.555
206.184601 66.509
207.678696 66.463
209.183624 66.417
210.699448 66.371
212.226257 66.324
213.764130 66.277
215.313156 66.230
216.873398 66.184
218.444946 66.139
220.027893 66.095
221.622299 66.052
223.228271 66.010
224.845871 65.969
226.475204 65.928
228.116333 65.888
229.769363 65.849
231.434372 65.809
233.111435 65.770
234.800659 65.730
236.502121 65.690
238.215912 65.649
239.942123 65.607
241.680847 65.564
243.432159 65.520
245.196167 65.475
246.972961 65.430
248.762634 65.386
250.565277 65.343
252.380981 65.302
254.209839 65.262
256.051941 65.222
257.907410 65.182
259.776306 65.142
261.658752 65.101
263.554840 65.060
265.464661 65.019
267.388336 64.979
269.325928 64.939
271.277588 64.897
273.243378 64.855
275.223419 64.813
277.217804 64.770
279.226624 64.729
281.250000 64.688
283.288055 64.646
285.340881 64.604
287.408569 64.562
289.491241 64.518
291.589020 64.475
293.701996 64.431
295.830292 64.386
297.973999 64.341
300.133240 64.296
302.308136 64.251
304.498779 64.206
306.705292 64.163
308.927795 64.122
311.166412 64.081
313.421265 64.040
315.692444 63.999
317.980072 63.958
320.284302 63.915
322.605225 63.870
324.942963 63.824
327.297638 63.776
329.669373 63.727
332.058289 63.677
334.464508 63.629
336.888184 63.585
339.329407 63.544
341.788330 63.505
344.265076 63.468
346.759766 63.431
349.272522 63.392
351.803497 63.351
354.352814 63.307
356.920593 63.261
359.506989 63.215
362.112122 63.168
364.736145 63.123
367.379181 63.081
370.041351 63.041
372.722809 63.003
375.423706 62.966
378.144196 62.930
380.884399 62.894
383.644440 62.856
386.424500 62.815
389.224701 62.772
392.045197 62.726
394.886108 62.680
397.747620 62.635
400.629852 62.594
403.532990 62.555
406.457153 62.517
409.402496 62.479
412.369202 62.439
415.357391 62.398
418.367249 62.354
421.398895 62.310
424.452515 62.267
427.528259 62.225
430.626312 62.184
433.746796 62.143
436.889893 62.102
440.055786 62.061
443.244598 62.020
446.456543 61.978
449.691742 61.936
452.950409 61.896
456.232666 61.858
459.538727 61.823
462.868744 61.792
466.222870 61.763
469.601318 61.735
473.004242 61.706
476.431824 61.676
479.884247 61.646
483.361694 61.618
486.864319 61.590
490.392334 61.562
493.945923 61.532
497.525269 61.498
501.130554 61.461
504.761963 61.423
508.419678 61.384
512.103882 61.344
515.814819 61.306
519.552612 61.269
523.317505 61.232
527.109680 61.196
530.929321 61.160
534.776672 61.124
538.651855 61.089
542.555176 61.054
546.486755 61.019
550.446838 60.985
554.435608 60.952
558.453247 60.919
562.500000 60.886
566.576111 60.854
570.681763 60.822
574.817139 60.793
578.982483 60.764
583.178040 60.736
587.403992 60.705
591.660583 60.670
595.947998 60.632
600.266479 60.591
604.616272 60.552
608.997559 60.515
613.410583 60.483
617.855591 60.455
622.332825 60.431
626.842529 60.409
631.384888 60.387
635.960144 60.366
640.568604 60.345
645.210449 60.323
649.885925 60.300
654.595276 60.273
659.338745 60.243
664.116577 60.211
668.929016 60.178
673.776367 60.148
678.658813 60.121
683.576660 60.098
688.530151 60.079
693.519531 60.061
698.545044 60.045
703.606995 60.030
708.705627 60.018
713.841187 60.005
719.013977 59.989
724.224243 59.970
729.472290 59.945
734.758362 59.918
740.082703 59.889
745.445618 59.861
750.847412 59.834
756.288391 59.811
761.768799 59.789
767.288879 59.770
772.848999 59.751
778.449402 59.734
784.090393 59.718
789.772217 59.702
795.495239 59.686
801.259705 59.671
807.065979 59.659
812.914307 59.652
818.804993 59.650
824.738403 59.651
830.714783 59.655
836.734497 59.658
842.797791 59.662
848.905029 59.668
855.056519 59.677
861.252625 59.686
867.493591 59.696
873.779785 59.706
880.111572 59.714
886.489197 59.722
892.913086 59.731
899.383484 59.742
905.900818 59.756
912.465332 59.769
919.077454 59.781
925.737488 59.791
932.445740 59.801
939.202637 59.812
946.008484 59.824
952.863647 59.836
959.768494 59.851
966.723389 59.868
973.728638 59.888
980.784668 59.912
987.891846 59.938
995.050537 59.968
1002.261108 60.000
1009.523926 60.034
1016.839355 60.070
1024.207764 60.107
1031.629639 60.148
1039.105225 60.192
1046.635010 60.241
1054.219360 60.296
1061.858643 60.355
1069.553345 60.416
1077.303711 60.477
1085.110352 60.539
1092.973511 60.602
1100.893677 60.667
1108.871216 60.731
1116.906494 60.795
1125.000000 60.857
1133.152222 60.917
1141.363525 60.977
1149.634277 61.035
1157.964966 61.090
1166.356079 61.140
1174.807983 61.189
1183.321167 61.238
1191.895996 61.293
1200.532959 61.355
1209.232544 61.422
1217.995117 61.493
1226.821167 61.566
1235.711182 61.638
1244.665649 61.708
1253.685059 61.775
1262.769775 61.838
1271.920288 61.897
1281.137207 61.956
1290.420898 62.019
1299.771851 62.085
1309.190552 62.154
1318.677490 62.225
1328.233154 62.296
1337.858032 62.369
1347.552734 62.442
1357.317627 62.515
1367.153320 62.585
1377.060303 62.654
1387.039062 62.723
1397.090088 62.791
1407.213989 62.860
1417.411255 62.928
1427.682373 62.996
1438.027954 63.063
1448.448486 63.131
1458.944580 63.199
1469.516724 63.269
1480.165405 63.340
1490.891235 63.411
1501.694824 63.483
1512.576782 63.554
1523.537598 63.623
1534.577759 63.692
1545.697998 63.759
1556.898804 63.824
1568.180786 63.886
1579.544434 63.947
1590.990479 64.008
1602.519409 64.071
1614.131958 64.133
1625.828613 64.194
1637.609985 64.254
1649.476807 64.315
1661.429565 64.379
1673.468994 64.445
1685.595581 64.513
1697.810059 64.582
1710.113037 64.653
1722.505249 64.727
1734.987183 64.800
1747.559570 64.876
1760.223145 64.954
1772.978394 65.036
1785.826172 65.120
1798.766968 65.204
1811.801636 65.286
1824.930664 65.365
1838.154907 65.444
1851.474976 65.521
1864.891479 65.598
1878.405273 65.677
1892.016968 65.759
1905.727295 65.845
1919.536987 65.935
1933.446777 66.028
1947.457275 66.122
1961.569336 66.216
1975.783691 66.312
1990.101074 66.408
2004.522217 66.506
2019.047852 66.606
2033.678711 66.708
2048.415527 66.814
2063.259277 66.922
2078.210449 67.031
2093.270020 67.142
2108.438721 67.252
2123.717285 67.360
2139.106689 67.468
2154.607422 67.576
2170.220703 67.686
2185.947021 67.797
2201.787354 67.909
2217.742432 68.024
2233.812988 68.141
2250.000000 68.258
2266.304443 68.373
2282.727051 68.487
2299.268555 68.601
2315.929932 68.716
2332.712158 68.832
2349.615967 68.949
2366.642334 69.066
2383.791992 69.183
2401.065918 69.300
2418.465088 69.419
2435.990234 69.540
2453.642334 69.666
2471.422363 69.797
2489.331299 69.934
2507.370117 70.072
2525.539551 70.210
2543.840576 70.345
2562.274414 70.479
2580.841797 70.610
2599.543701 70.741
2618.381104 70.872
2637.354980 71.005
2656.466309 71.142
2675.716064 71.282
2695.105469 71.423
2714.635254 71.563
2734.306641 71.697
2754.120605 71.824
2774.078125 71.940
2794.180176 72.043
2814.427979 72.136
2834.822510 72.218
2855.364746 72.293
2876.055908 72.360
2896.896973 72.422
2917.889160 72.477
2939.033447 72.524
2960.330811 72.560
2981.782471 72.585
3003.389648 72.599
3025.153564 72.601
3047.075195 72.592
3069.155518 72.571
3091.395996 72.539
3113.797607 72.496
3136.361572 72.443
3159.088867 72.380
3181.980957 72.308
3205.038818 72.226
3228.263916 72.133
3251.657227 72.031
3275.219971 71.921
3298.953613 71.802
3322.859131 71.676
3346.937988 71.544
3371.191162 71.408
3395.620117 71.271
3420.226074 71.135
3445.010498 71.000
3469.974365 70.865
3495.119141 70.731
3520.446289 70.596
3545.956787 70.463
3571.652344 70.331
3597.533936 70.200
3623.603271 70.070
3649.861328 69.941
3676.309814 69.814
3702.949951 69.688
3729.782959 69.565
3756.810547 69.448
3784.033936 69.336
3811.454590 69.227
3839.073975 69.122
3866.893555 69.019
3894.914551 68.916
3923.138672 68.815
3951.567383 68.715
3980.202148 68.614
4009.044434 68.512
4038.095703 68.408
4067.357422 68.305
4096.831055 68.204
4126.518555 68.112
4156.420898 68.029
4186.540039 67.957
4216.877441 67.897
4247.434570 67.847
4278.213379 67.804
4309.214844 67.764
4340.441406 67.727
4371.894043 67.691
4403.574707 67.658
4435.484863 67.628
4467.625977 67.602
4500.000000 67.579
4532.608887 67.558
4565.454102 67.539
4598.537109 67.525
4631.859863 67.519
4665.424316 67.524
4699.231934 67.543
4733.284668 67.571
4767.583984 67.605
4802.131836 67.640
4836.930176 67.673
4871.980469 67.702
4907.284668 67.722
4942.844727 67.734
4978.662598 67.737
5014.740234 67.737
5051.079102 67.740
5087.681152 67.750
5124.548828 67.770
5161.683594 67.801
5199.087402 67.839
5236.762207 67.876
5274.709961 67.910
5312.932617 67.938
5351.432129 67.957
5390.210938 67.967
5429.270508 67.964
5468.613281 67.945
5508.241211 67.912
5548.156250 67.871
5588.360352 67.828
5628.855957 67.789
5669.645020 67.753
5710.729492 67.721
5752.111816 67.691
5793.793945 67.664
5835.778320 67.640
5878.066895 67.619
5920.661621 67.596
5963.564941 67.569
6006.779297 67.538
6050.307129 67.503
6094.150391 67.464
6138.311035 67.421
6182.791992 67.374
6227.595215 67.325
6272.723145 67.274
6318.177734 67.221
6363.961914 67.166
6410.077637 67.103
6456.527832 67.025
6503.314453 66.931
6550.439941 66.817
6597.907227 66.686
6645.718262 66.539
6693.875977 66.378
6742.382324 66.208
6791.240234 66.035
6840.452148 65.866
6890.020996 65.708
6939.948730 65.566
6990.238281 65.442
7040.892578 65.333
7091.913574 65.236
7143.304688 65.146
7195.067871 65.063
7247.206543 64.988
7299.722656 64.920
7352.619629 64.860
7405.899902 64.807
7459.565918 64.764
7513.621094 64.733
7568.067871 64.719
7622.909180 64.726
7678.147949 64.757
7733.787109 64.819
7789.829102 64.915
7846.277344 65.049
7903.134766 65.217
7960.404297 65.406
8018.088867 65.607
8076.191406 65.811
8134.714844 66.007
8193.662109 66.187
8253.037109 66.342
8312.841797 66.464
8373.080078 66.543
8433.754883 66.575
8494.869141 66.560
8556.426758 66.499
8618.429688 66.386
8680.882812 66.217
8743.788086 65.989
8807.149414 65.702
8870.969727 65.359
8935.251953 64.966
9000.000000 64.530
9065.217773 64.060
9130.908203 63.563
9197.074219 63.050
9263.719727 62.530
9330.848633 62.011
9398.463867 61.501
9466.569336 61.001
9535.167969 60.510
9604.263672 60.024
9673.860352 59.544
9743.960938 59.079
9814.569336 58.636
9885.689453 58.219
9957.325195 57.828
10029.480469 57.459
10102.158203 57.109
10175.362305 56.778
10249.097656 56.462
10323.367188 56.153
10398.174805 55.842
10473.524414 55.522
10549.419922 55.186
10625.865234 54.831
10702.864258 54.461
10780.421875 54.075
10858.541016 53.671
10937.226562 53.240
11016.482422 52.787
11096.312500 52.320
11176.720703 51.849
11257.711914 51.380
11339.290039 50.933
11421.458984 50.522
11504.223633 50.154
11587.587891 49.835
11671.556641 49.575
11756.133789 49.380
11841.323242 49.250
11927.129883 49.185
12013.558594 49.197
12100.614258 49.310
12188.300781 49.522
12276.622070 49.795
12365.583984 50.093
12455.190430 50.400
12545.446289 50.713
12636.355469 51.035
12727.923828 51.370
12820.155273 51.695
12913.055664 51.982
13006.628906 52.225
13100.879883 52.437
13195.814453 52.622
13291.436523 52.773
13387.751953 52.878
13484.764648 52.937
13582.480469 52.956
13680.904297 52.927
13780.041992 52.858
13879.897461 52.808
13980.476562 52.854
14081.785156 53.049
14183.827148 53.385
14286.609375 53.827
14390.135742 54.380
14494.413086 55.170
14599.445312 56.351
14705.239258 57.754
14811.799805 59.134
14919.131836 60.415
15027.242188 61.583
15136.135742 62.628
15245.818359 63.413
15356.295898 63.880
15467.574219 64.094
15579.658203 64.064
15692.554688 63.794
15806.269531 63.347
15920.808594 62.779
16036.177734 62.120
16152.382812 61.402
16269.429688 60.659
16387.324219 59.904
16506.074219 59.122
16625.683594 58.292
16746.160156 57.407
16867.509766 56.538
16989.738281 55.791
17112.853516 55.192
17236.859375 54.791
17361.765625 54.655
17487.576172 54.787
17614.298828 55.153
17741.939453 55.723
17870.503906 56.449
18000.000000 57.251
18130.435547 57.990
18261.816406 58.479
18394.148438 58.530
18527.439453 58.019
18661.697266 56.923
18796.927734 55.324
18933.138672 53.374
19070.335938 51.248
19208.527344 49.089
19347.720703 46.976
19487.921875 44.928
19629.138672 42.936
19771.378906 41.047
19914.650391 39.648
